# Cleaned spectrum data (original units)
# Format: Wavelength(nm) Flux(Wm^-2nm^-1)
# Created with Python spectrum processing script
# Object: DR4_3_SPLUS-s27s07_0011404
# Processing_date: 2025-08-12
# Original_file: s27s07_new_apOIII.txt
# Note: Original units
# Wavelength_units: nm
# 
# Wavelength    Flux
# ---------    ----
423.4383    2.204666e-18
423.5393    2.395056e-18
423.6402    2.357215e-18
423.7412    2.516525e-18
423.8421    2.516242e-18
423.9431    2.461498e-18
424.0440    2.591416e-18
424.1450    2.506447e-18
424.2459    2.350637e-18
424.3469    2.474551e-18
424.4478    2.479777e-18
424.5487    2.388547e-18
424.6497    2.356518e-18
424.7506    2.328747e-18
424.8516    2.310108e-18
424.9525    2.274257e-18
425.0535    2.210511e-18
425.1544    2.313330e-18
425.2554    2.344868e-18
425.3563    2.258736e-18
425.4573    2.268613e-18
425.5582    2.439696e-18
425.6591    2.533137e-18
425.7601    2.371336e-18
425.8610    2.293925e-18
425.9620    2.322782e-18
426.0629    2.306547e-18
426.1639    2.449160e-18
426.2648    2.670454e-18
426.3658    2.456353e-18
426.4667    2.519005e-18
426.5677    2.323911e-18
426.6686    2.217677e-18
426.7695    2.594700e-18
426.8705    2.415693e-18
426.9714    2.347402e-18
427.0724    2.536603e-18
427.1733    2.498407e-18
427.2743    2.399616e-18
427.3752    2.370195e-18
427.4762    2.425700e-18
427.5771    2.344762e-18
427.6781    2.554361e-18
427.7790    1.775386e-18
427.8799    8.731782e-18
427.9809    3.293417e-17
428.0818    1.746286e-17
428.1828    9.830074e-18
428.2837    2.197283e-18
428.3847    2.270738e-18
428.4856    2.303694e-18
428.5866    2.239562e-18
428.6875    2.312103e-18
428.7885    2.280794e-18
428.8894    2.282314e-18
428.9903    2.314430e-18
429.0913    2.317518e-18
429.1922    2.311677e-18
429.2932    2.298650e-18
429.3941    2.374860e-18
429.4951    2.372853e-18
429.5960    2.282994e-18
429.6970    2.182501e-18
429.7979    2.124960e-18
429.8989    2.238020e-18
429.9998    2.181113e-18
430.1007    2.207786e-18
430.2017    2.290799e-18
430.3026    2.235801e-18
430.4036    2.178467e-18
430.5045    2.179254e-18
430.6055    2.181691e-18
430.7064    2.325955e-18
430.8074    2.368035e-18
430.9083    2.169476e-18
431.0093    2.213221e-18
431.1102    2.305164e-18
431.2111    2.268945e-18
431.3121    2.232563e-18
431.4130    2.199494e-18
431.5140    2.189895e-18
431.6149    2.186036e-18
431.7159    2.338654e-18
431.8168    2.244547e-18
431.9178    2.189115e-18
432.0187    2.234081e-18
432.1197    2.178938e-18
432.2206    2.234865e-18
432.3215    2.327653e-18
432.4225    2.245432e-18
432.5234    2.150942e-18
432.6244    2.190082e-18
432.7253    2.186772e-18
432.8263    2.159100e-18
432.9272    2.123127e-18
433.0282    2.123909e-18
433.1291    2.147915e-18
433.2301    2.199579e-18
433.3310    2.174959e-18
433.4319    2.160521e-18
433.5329    2.230619e-18
433.6338    2.153784e-18
433.7348    2.172312e-18
433.8357    2.215935e-18
433.9367    2.128734e-18
434.0376    2.156777e-18
434.1386    2.188038e-18
434.2395    2.132086e-18
434.3405    2.117705e-18
434.4414    2.138173e-18
434.5423    2.032518e-18
434.6433    1.969127e-18
434.7442    2.061254e-18
434.8452    2.123625e-18
434.9461    2.100337e-18
435.0471    2.092859e-18
435.1480    2.110018e-18
435.2490    2.058395e-18
435.3499    2.089477e-18
435.4509    2.080223e-18
435.5518    2.004837e-18
435.6527    2.046293e-18
435.7537    2.016215e-18
435.8546    2.019686e-18
435.9556    2.045001e-18
436.0565    2.048285e-18
436.1575    2.086452e-18
436.2584    2.063760e-18
436.3594    2.101004e-18
436.4603    2.025203e-18
436.5613    1.935602e-18
436.6622    2.023882e-18
436.7631    2.018731e-18
436.8641    2.013012e-18
436.9650    2.052561e-18
437.0660    2.025542e-18
437.1669    2.108503e-18
437.2679    2.077423e-18
437.3688    1.998408e-18
437.4698    2.013626e-18
437.5707    1.948582e-18
437.6717    2.017934e-18
437.7726    2.062163e-18
437.8735    1.962615e-18
437.9745    1.908488e-18
438.0754    1.915790e-18
438.1764    1.989791e-18
438.2773    1.953630e-18
438.3783    1.956612e-18
438.4792    1.949166e-18
438.5802    1.892997e-18
438.6811    1.874280e-18
438.7821    1.902876e-18
438.8830    1.891735e-18
438.9839    1.890625e-18
439.0849    1.894982e-18
439.1858    1.853202e-18
439.2868    1.875109e-18
439.3877    2.184375e-18
439.4887    2.523858e-18
439.5896    2.714786e-18
439.6906    2.848000e-18
439.7915    3.040815e-18
439.8925    3.282163e-18
439.9934    3.346946e-18
440.0943    3.061575e-18
440.1953    2.772310e-18
440.2962    2.547616e-18
440.3972    2.226714e-18
440.4981    1.869679e-18
440.5991    1.680411e-18
440.7000    1.656759e-18
440.8010    1.697686e-18
440.9019    1.778822e-18
441.0029    1.837816e-18
441.1038    1.815744e-18
441.2047    1.830817e-18
441.3057    1.904291e-18
441.4066    1.901384e-18
441.5076    1.906201e-18
441.6085    2.052441e-18
441.7095    2.084042e-18
441.8104    2.128622e-18
441.9114    2.151218e-18
442.0123    2.154280e-18
442.1133    2.294039e-18
442.2142    2.274653e-18
442.3151    2.223107e-18
442.4161    2.223206e-18
442.5170    2.214778e-18
442.6180    2.162491e-18
442.7189    2.044455e-18
442.8199    2.012705e-18
442.9208    1.948813e-18
443.0218    1.902935e-18
443.1227    1.838461e-18
443.2237    1.857104e-18
443.3246    1.965261e-18
443.4255    1.960396e-18
443.5265    1.905714e-18
443.6274    1.962493e-18
443.7284    1.989068e-18
443.8293    1.939499e-18
443.9303    1.953068e-18
444.0312    1.940336e-18
444.1322    1.953556e-18
444.2331    1.928027e-18
444.3341    1.888654e-18
444.4350    1.870642e-18
444.5359    1.782051e-18
444.6369    1.800471e-18
444.7378    1.920382e-18
444.8388    1.907745e-18
444.9397    1.873529e-18
445.0407    1.812064e-18
445.1416    1.839542e-18
445.2426    1.904162e-18
445.3435    1.892074e-18
445.4445    1.906406e-18
445.5454    1.887238e-18
445.6463    1.889199e-18
445.7473    1.922220e-18
445.8482    1.972580e-18
445.9492    1.961662e-18
446.0501    1.957789e-18
446.1511    1.992452e-18
446.2520    1.989207e-18
446.3530    1.901193e-18
446.4539    1.950506e-18
446.5549    2.027518e-18
446.6558    1.942888e-18
446.7567    1.935944e-18
446.8577    1.989939e-18
446.9586    1.944381e-18
447.0596    1.958806e-18
447.1605    1.985859e-18
447.2615    1.912063e-18
447.3624    1.846057e-18
447.4634    1.845274e-18
447.5643    1.856854e-18
447.6653    1.877630e-18
447.7662    1.919754e-18
447.8671    1.924589e-18
447.9681    1.914817e-18
448.0690    1.885798e-18
448.1700    1.870382e-18
448.2709    1.905999e-18
448.3719    1.938687e-18
448.4728    1.919134e-18
448.5738    1.890117e-18
448.6747    1.958346e-18
448.7757    1.904402e-18
448.8766    1.904272e-18
448.9775    1.958535e-18
449.0785    1.880927e-18
449.1794    1.939329e-18
449.2804    1.982541e-18
449.3813    1.918806e-18
449.4823    1.881868e-18
449.5832    2.004197e-18
449.6842    1.990825e-18
449.7851    1.898292e-18
449.8861    1.957774e-18
449.9870    1.914807e-18
450.0879    1.913157e-18
450.1889    1.873118e-18
450.2898    1.906748e-18
450.3908    1.936630e-18
450.4917    1.870954e-18
450.5927    1.852474e-18
450.6936    1.845271e-18
450.7946    1.851755e-18
450.8955    1.884511e-18
450.9965    1.891844e-18
451.0974    1.845536e-18
451.1983    1.873361e-18
451.2993    1.819391e-18
451.4002    1.839991e-18
451.5012    1.848715e-18
451.6021    1.832811e-18
451.7031    1.844588e-18
451.8040    1.879350e-18
451.9050    1.855567e-18
452.0059    1.845264e-18
452.1069    1.844900e-18
452.2078    1.873211e-18
452.3087    1.846640e-18
452.4097    1.832461e-18
452.5106    1.805266e-18
452.6116    1.821947e-18
452.7125    1.879831e-18
452.8135    1.940022e-18
452.9144    1.899336e-18
453.0154    1.960990e-18
453.1163    1.919255e-18
453.2173    1.865834e-18
453.3182    1.888591e-18
453.4191    1.855003e-18
453.5201    1.861509e-18
453.6210    1.940108e-18
453.7220    1.858474e-18
453.8229    1.784186e-18
453.9239    1.715836e-18
454.0248    1.779484e-18
454.1258    2.039555e-18
454.2267    1.860498e-18
454.3277    1.817096e-18
454.4286    1.858127e-18
454.5295    1.874217e-18
454.6305    1.839993e-18
454.7314    1.848657e-18
454.8324    1.827364e-18
454.9333    1.816965e-18
455.0343    1.800163e-18
455.1352    1.771085e-18
455.2362    1.780531e-18
455.3371    1.835038e-18
455.4381    1.836655e-18
455.5390    1.851273e-18
455.6399    1.805979e-18
455.7409    1.760294e-18
455.8418    1.866027e-18
455.9428    1.839731e-18
456.0437    1.818754e-18
456.1447    1.907327e-18
456.2456    1.939044e-18
456.3466    1.879000e-18
456.4475    1.763032e-18
456.5485    1.736655e-18
456.6494    1.863280e-18
456.7503    1.844332e-18
456.8513    1.854358e-18
456.9522    1.877602e-18
457.0532    1.826357e-18
457.1541    1.828816e-18
457.2551    1.931988e-18
457.3560    1.904192e-18
457.4570    1.845695e-18
457.5579    1.816486e-18
457.6589    1.853159e-18
457.7598    1.879097e-18
457.8607    1.853970e-18
457.9617    1.817451e-18
458.0626    1.798335e-18
458.1636    1.794431e-18
458.2645    1.870745e-18
458.3655    1.843078e-18
458.4664    1.760033e-18
458.5674    2.101869e-18
458.6683    1.751210e-18
458.7693    1.822866e-18
458.8702    1.725292e-18
458.9712    1.714827e-18
459.0721    1.751727e-18
459.1730    1.805749e-18
459.2740    1.792857e-18
459.3749    1.746742e-18
459.4759    1.798908e-18
459.5768    1.817659e-18
459.6778    1.775870e-18
459.7787    1.904581e-18
459.8797    1.810327e-18
459.9806    1.782213e-18
460.0816    1.797196e-18
460.1825    1.831137e-18
460.2834    1.788181e-18
460.3844    1.778332e-18
460.4853    1.810933e-18
460.5863    1.821372e-18
460.6872    1.796968e-18
460.7882    1.778041e-18
460.8891    1.740906e-18
460.9901    1.748141e-18
461.0910    1.795958e-18
461.1920    1.740149e-18
461.2929    1.758674e-18
461.3938    1.722182e-18
461.4948    1.671421e-18
461.5957    1.732257e-18
461.6967    1.733789e-18
461.7976    1.732374e-18
461.8986    1.757207e-18
461.9995    1.900252e-18
462.1005    1.851310e-18
462.2014    1.794432e-18
462.3024    1.765780e-18
462.4033    1.762048e-18
462.5042    1.810106e-18
462.6052    1.880639e-18
462.7061    1.870527e-18
462.8071    1.817550e-18
462.9080    1.830368e-18
463.0090    1.801416e-18
463.1099    1.768144e-18
463.2109    1.730522e-18
463.3118    1.768249e-18
463.4128    1.935031e-18
463.5137    1.783354e-18
463.6146    1.757625e-18
463.7156    1.721363e-18
463.8165    1.746217e-18
463.9175    1.730127e-18
464.0184    1.755138e-18
464.1194    1.790305e-18
464.2203    1.783314e-18
464.3213    1.726083e-18
464.4222    1.686833e-18
464.5232    1.712127e-18
464.6241    1.768422e-18
464.7250    1.769315e-18
464.8260    1.727837e-18
464.9269    1.752870e-18
465.0279    1.670901e-18
465.1288    1.726572e-18
465.2298    1.821996e-18
465.3307    1.755648e-18
465.4317    1.740969e-18
465.5326    1.843421e-18
465.6336    1.813714e-18
465.7345    1.733833e-18
465.8354    1.748804e-18
465.9364    1.743735e-18
466.0373    1.798015e-18
466.1383    1.784723e-18
466.2392    1.799349e-18
466.3402    1.796706e-18
466.4411    1.725887e-18
466.5421    1.699402e-18
466.6430    1.758064e-18
466.7440    1.826683e-18
466.8449    1.834639e-18
466.9458    1.782417e-18
467.0468    1.727038e-18
467.1477    1.749208e-18
467.2487    1.783590e-18
467.3496    1.831008e-18
467.4506    1.834832e-18
467.5515    1.769797e-18
467.6525    1.703935e-18
467.7534    1.718418e-18
467.8544    1.776030e-18
467.9553    1.763599e-18
468.0562    1.768962e-18
468.1572    1.790983e-18
468.2581    1.793868e-18
468.3591    1.712679e-18
468.4600    1.674740e-18
468.5610    1.788179e-18
468.6619    1.761577e-18
468.7629    1.731433e-18
468.8638    1.752181e-18
468.9648    1.757929e-18
469.0657    1.743842e-18
469.1666    1.716288e-18
469.2676    1.734789e-18
469.3685    1.783545e-18
469.4695    1.726007e-18
469.5704    1.700839e-18
469.6714    1.706521e-18
469.7723    1.730328e-18
469.8733    1.792742e-18
469.9742    1.838001e-18
470.0752    1.838177e-18
470.1761    1.732857e-18
470.2770    1.722075e-18
470.3780    1.742231e-18
470.4789    1.691562e-18
470.5799    1.682898e-18
470.6808    1.712441e-18
470.7818    1.697964e-18
470.8827    1.705970e-18
470.9837    1.733582e-18
471.0846    1.732283e-18
471.1856    1.716220e-18
471.2865    1.736295e-18
471.3874    1.715009e-18
471.4884    1.692279e-18
471.5893    1.731617e-18
471.6903    1.691395e-18
471.7912    1.680505e-18
471.8922    1.740566e-18
471.9931    1.732425e-18
472.0941    1.765114e-18
472.1950    1.814950e-18
472.2960    1.767299e-18
472.3969    1.766202e-18
472.4978    1.803110e-18
472.5988    1.806556e-18
472.6997    1.786070e-18
472.8007    1.755302e-18
472.9016    1.718262e-18
473.0026    1.708323e-18
473.1035    1.692478e-18
473.2045    1.713092e-18
473.3054    1.682318e-18
473.4064    1.665094e-18
473.5073    1.698528e-18
473.6082    1.712967e-18
473.7092    1.753936e-18
473.8101    1.699941e-18
473.9111    1.687003e-18
474.0120    1.717019e-18
474.1130    1.712461e-18
474.2139    1.703304e-18
474.3149    1.669686e-18
474.4158    1.682190e-18
474.5168    1.700174e-18
474.6177    1.719908e-18
474.7186    1.739088e-18
474.8196    1.695994e-18
474.9205    1.719242e-18
475.0215    1.728900e-18
475.1224    1.689731e-18
475.2234    1.673605e-18
475.3243    1.693396e-18
475.4253    1.744863e-18
475.5262    1.738192e-18
475.6272    1.720504e-18
475.7281    1.711252e-18
475.8290    1.658290e-18
475.9300    1.658333e-18
476.0309    1.677346e-18
476.1319    1.673830e-18
476.2328    1.700022e-18
476.3338    1.684877e-18
476.4347    1.657034e-18
476.5357    1.712945e-18
476.6366    1.667844e-18
476.7376    1.632030e-18
476.8385    1.670871e-18
476.9394    1.646716e-18
477.0404    1.618697e-18
477.1413    1.705430e-18
477.2423    1.723798e-18
477.3432    1.713005e-18
477.4442    1.685258e-18
477.5451    1.595055e-18
477.6461    1.605384e-18
477.7470    1.637023e-18
477.8480    1.616442e-18
477.9489    1.650811e-18
478.0498    1.661278e-18
478.1508    1.643282e-18
478.2517    1.674398e-18
478.3527    1.701350e-18
478.4536    1.700232e-18
478.5546    1.681275e-18
478.6555    1.651563e-18
478.7565    1.711657e-18
478.8574    1.727021e-18
478.9584    1.710009e-18
479.0593    1.688108e-18
479.1602    1.607448e-18
479.2612    1.605647e-18
479.3621    1.641954e-18
479.4631    1.668063e-18
479.5640    1.651346e-18
479.6650    1.635175e-18
479.7659    1.663931e-18
479.8669    1.622860e-18
479.9678    1.607887e-18
480.0688    1.653876e-18
480.1697    1.681404e-18
480.2706    1.719882e-18
480.3716    1.714487e-18
480.4725    1.649891e-18
480.5735    1.648113e-18
480.6744    1.715019e-18
480.7754    1.743220e-18
480.8763    1.695900e-18
480.9773    1.678562e-18
481.0782    1.706504e-18
481.1792    1.742459e-18
481.2801    1.686025e-18
481.3810    1.588858e-18
481.4820    1.596243e-18
481.5829    1.609497e-18
481.6839    1.625082e-18
481.7848    1.650018e-18
481.8858    1.668271e-18
481.9867    1.612268e-18
482.0877    1.643587e-18
482.1886    1.689308e-18
482.2896    1.659045e-18
482.3905    1.669150e-18
482.4914    1.619402e-18
482.5924    1.639889e-18
482.6933    1.632213e-18
482.7943    1.622250e-18
482.8952    1.634411e-18
482.9962    1.612421e-18
483.0971    1.632752e-18
483.1981    1.696005e-18
483.2990    1.667828e-18
483.4000    1.603710e-18
483.5009    1.603915e-18
483.6018    1.627104e-18
483.7028    1.649868e-18
483.8037    1.664846e-18
483.9047    1.646153e-18
484.0056    1.664431e-18
484.1066    1.660537e-18
484.2075    1.653486e-18
484.3085    1.670145e-18
484.4094    1.640834e-18
484.5104    1.632884e-18
484.6113    1.609776e-18
484.7122    1.608247e-18
484.8132    1.596241e-18
484.9141    1.620336e-18
485.0151    1.619990e-18
485.1160    1.605362e-18
485.2170    1.617423e-18
485.3179    1.620148e-18
485.4189    1.651842e-18
485.5198    1.646125e-18
485.6208    1.622122e-18
485.7217    1.627626e-18
485.8226    1.627611e-18
485.9236    1.622686e-18
486.0245    1.652890e-18
486.1255    1.648537e-18
486.2264    1.584441e-18
486.3274    1.638260e-18
486.4283    1.637131e-18
486.5293    1.666945e-18
486.6302    1.691828e-18
486.7312    1.646351e-18
486.8321    1.590626e-18
486.9330    1.585884e-18
487.0340    1.638230e-18
487.1349    1.633703e-18
487.2359    1.642304e-18
487.3368    1.616645e-18
487.4378    1.676932e-18
487.5387    1.701293e-18
487.6397    1.625314e-18
487.7406    1.604110e-18
487.8416    1.577657e-18
487.9425    1.551037e-18
488.0434    1.631691e-18
488.1444    1.677067e-18
488.2453    1.633818e-18
488.3463    1.626933e-18
488.4472    1.612843e-18
488.5482    1.633531e-18
488.6491    1.622693e-18
488.7501    1.628167e-18
488.8510    1.599531e-18
488.9520    1.598520e-18
489.0529    1.624096e-18
489.1538    1.613174e-18
489.2548    1.693091e-18
489.3557    1.624852e-18
489.4567    1.561755e-18
489.5576    1.618166e-18
489.6586    1.673886e-18
489.7595    1.608789e-18
489.8605    1.577125e-18
489.9614    1.597830e-18
490.0624    1.649215e-18
490.1633    1.606736e-18
490.2642    1.566606e-18
490.3652    1.589554e-18
490.4661    1.589428e-18
490.5671    1.530007e-18
490.6680    1.523105e-18
490.7690    1.529831e-18
490.8699    1.523590e-18
490.9709    1.563566e-18
491.0718    1.582175e-18
491.1728    1.545554e-18
491.2737    1.521551e-18
491.3746    1.496976e-18
491.4756    1.489721e-18
491.5765    1.495350e-18
491.6775    1.468026e-18
491.7784    1.425497e-18
491.8794    1.432965e-18
491.9803    1.418026e-18
492.0813    1.352156e-18
492.1822    1.635259e-18
492.2832    2.373626e-18
492.3841    3.130407e-18
492.4850    3.727185e-18
492.5860    4.289632e-18
492.6869    4.875236e-18
492.7879    5.202035e-18
492.8888    4.965758e-18
492.9898    4.378727e-18
493.0907    3.865663e-18
493.1917    3.375521e-18
493.2926    2.575423e-18
493.3936    1.708665e-18
493.4945    1.410887e-18
493.5954    1.353405e-18
493.6964    1.339416e-18
493.7973    1.373359e-18
493.8983    1.399629e-18
493.9992    1.453210e-18
494.1002    1.440004e-18
494.2011    1.459993e-18
494.3021    1.469405e-18
494.4030    1.493299e-18
494.5040    1.505067e-18
494.6049    1.512323e-18
494.7058    1.583740e-18
494.8068    1.565823e-18
494.9077    1.537228e-18
495.0087    1.562600e-18
495.1096    1.550059e-18
495.2106    1.547982e-18
495.3115    1.497692e-18
495.4125    1.464588e-18
495.5134    1.532163e-18
495.6144    1.511425e-18
495.7153    1.515412e-18
495.8163    1.571176e-18
495.9172    1.541325e-18
496.0181    1.537894e-18
496.1191    1.551820e-18
496.2200    1.549478e-18
496.3210    1.572971e-18
496.4219    1.544479e-18
496.5229    1.563994e-18
496.6238    1.561889e-18
496.7248    1.547176e-18
496.8257    1.555497e-18
496.9267    1.505155e-18
497.0276    1.542591e-18
497.1285    1.590314e-18
497.2295    1.564623e-18
497.3304    1.501726e-18
497.4314    1.497207e-18
497.5323    1.532135e-18
497.6333    1.560675e-18
497.7342    1.555026e-18
497.8352    1.518886e-18
497.9361    1.515876e-18
498.0371    1.553241e-18
498.1380    1.584980e-18
498.2389    1.500662e-18
498.3399    1.446424e-18
498.4408    1.527856e-18
498.5418    1.527168e-18
498.6427    1.479380e-18
498.7437    1.503766e-18
498.8446    1.510460e-18
498.9456    1.515258e-18
499.0465    1.510356e-18
499.1475    1.495028e-18
499.2484    1.540402e-18
499.3493    1.539522e-18
499.4503    1.515037e-18
499.5512    1.518047e-18
499.6522    1.561227e-18
499.7531    1.554911e-18
499.8541    1.537574e-18
499.9550    1.540849e-18
500.0560    1.552984e-18
500.1569    1.555936e-18
500.2579    1.521971e-18
500.3588    1.541493e-18
500.4597    1.539050e-18
500.5607    1.512459e-18
500.6616    1.544810e-18
500.7626    1.562776e-18
500.8635    1.549770e-18
500.9645    1.559328e-18
501.0654    1.526384e-18
501.1664    1.546906e-18
501.2673    1.560006e-18
501.3683    1.565212e-18
501.4692    1.584095e-18
501.5701    1.578085e-18
501.6711    1.590873e-18
501.7720    1.554505e-18
501.8730    1.531082e-18
501.9739    1.612810e-18
502.0749    1.834149e-18
502.1758    2.703832e-18
502.2768    3.910505e-18
502.3777    4.859761e-18
502.4787    5.921840e-18
502.5796    6.864188e-18
502.6805    7.303672e-18
502.7815    6.746028e-18
502.8824    5.620689e-18
502.9834    4.517750e-18
503.0843    3.676208e-18
503.1853    2.755409e-18
503.2862    1.895423e-18
503.3872    1.558668e-18
503.4881    1.565331e-18
503.5891    1.542772e-18
503.6900    1.526944e-18
503.7909    1.527484e-18
503.8919    1.538142e-18
503.9928    1.519087e-18
504.0938    1.545465e-18
504.1947    1.488403e-18
504.2957    1.462525e-18
504.3966    1.527681e-18
504.4976    1.524344e-18
504.5985    1.538237e-18
504.6995    1.499116e-18
504.8004    1.504453e-18
504.9013    1.568271e-18
505.0023    1.600189e-18
505.1032    1.585707e-18
505.2042    1.541998e-18
505.3051    1.543199e-18
505.4061    1.551188e-18
505.5070    1.556408e-18
505.6080    1.555319e-18
505.7089    1.543044e-18
505.8099    1.577995e-18
505.9108    1.566459e-18
506.0117    1.545737e-18
506.1127    1.485634e-18
506.2136    1.486620e-18
506.3146    1.516958e-18
506.4155    1.520055e-18
506.5165    1.526438e-18
506.6174    1.507380e-18
506.7184    1.478597e-18
506.8193    1.503317e-18
506.9203    2.136716e-18
507.0212    4.607739e-18
507.1221    7.873134e-18
507.2231    1.069817e-17
507.3240    1.372327e-17
507.4250    1.678436e-17
507.5259    1.773864e-17
507.6269    1.676320e-17
507.7278    1.407533e-17
507.8288    1.091820e-17
507.9297    8.245510e-18
508.0307    5.556093e-18
508.1316    2.913986e-18
508.2325    1.644765e-18
508.3335    1.561419e-18
508.4344    1.620493e-18
508.5354    1.547602e-18
508.6363    1.509472e-18
508.7373    1.518947e-18
508.8382    1.504441e-18
508.9392    1.478672e-18
509.0401    1.457409e-18
509.1411    1.495378e-18
509.2420    1.445736e-18
509.3429    1.491477e-18
509.4439    1.449770e-18
509.5448    1.434459e-18
509.6458    1.521268e-18
509.7467    1.547102e-18
509.8477    1.505046e-18
509.9486    1.489344e-18
510.0496    1.535557e-18
510.1505    1.545218e-18
510.2515    1.552318e-18
510.3524    1.520933e-18
510.4533    1.498522e-18
510.5543    1.510107e-18
510.6552    1.505513e-18
510.7562    1.476218e-18
510.8571    1.505990e-18
510.9581    1.524626e-18
511.0590    1.475504e-18
511.1600    1.462461e-18
511.2609    1.474510e-18
511.3619    1.506885e-18
511.4628    1.501658e-18
511.5637    1.488748e-18
511.6647    1.496936e-18
511.7656    1.482962e-18
511.8666    1.509590e-18
511.9675    1.468154e-18
512.0685    1.470057e-18
512.1694    1.520977e-18
512.2704    1.553588e-18
512.3713    1.527811e-18
512.4723    1.465911e-18
512.5732    1.484152e-18
512.6741    1.513829e-18
512.7751    1.475482e-18
512.8760    1.468900e-18
512.9770    1.498583e-18
513.0779    1.517441e-18
513.1789    1.511365e-18
513.2798    1.490602e-18
513.3808    1.438779e-18
513.4817    1.495303e-18
513.5827    1.545609e-18
513.6836    1.469874e-18
513.7845    1.461509e-18
513.8855    1.438783e-18
513.9864    1.495519e-18
514.0874    1.477378e-18
514.1883    1.484252e-18
514.2893    1.550229e-18
514.3902    1.538428e-18
514.4912    1.505326e-18
514.5921    1.481534e-18
514.6931    1.477227e-18
514.7940    1.441785e-18
514.8949    1.454591e-18
514.9959    1.497662e-18
515.0968    1.467959e-18
515.1978    1.445792e-18
515.2987    1.461587e-18
515.3997    1.436215e-18
515.5006    1.431987e-18
515.6016    1.460818e-18
515.7025    1.486925e-18
515.8035    1.484309e-18
515.9044    1.433509e-18
516.0053    1.407284e-18
516.1063    1.463775e-18
516.2072    1.475867e-18
516.3082    1.433867e-18
516.4091    1.454075e-18
516.5101    1.439487e-18
516.6110    1.428414e-18
516.7120    1.507983e-18
516.8129    1.519134e-18
516.9139    1.468635e-18
517.0148    1.436415e-18
517.1157    1.501378e-18
517.2167    1.507291e-18
517.3176    1.427352e-18
517.4186    1.457198e-18
517.5195    1.425652e-18
517.6205    1.426801e-18
517.7214    1.426069e-18
517.8224    1.440756e-18
517.9233    1.480544e-18
518.0243    1.433880e-18
518.1252    1.448288e-18
518.2261    1.475939e-18
518.3271    1.479090e-18
518.4280    1.433440e-18
518.5290    1.427984e-18
518.6299    1.487500e-18
518.7309    1.458705e-18
518.8318    1.472722e-18
518.9328    1.480903e-18
519.0337    1.476106e-18
519.1347    1.450800e-18
519.2356    1.438013e-18
519.3365    1.461440e-18
519.4375    1.432855e-18
519.5384    1.413872e-18
519.6394    1.417467e-18
519.7403    1.463914e-18
519.8413    1.437765e-18
519.9422    1.454581e-18
520.0432    1.476531e-18
520.1441    1.448237e-18
520.2451    1.406096e-18
520.3460    1.437289e-18
520.4469    1.398851e-18
520.5479    1.385693e-18
520.6488    1.448364e-18
520.7498    1.448443e-18
520.8507    1.477941e-18
520.9517    1.447328e-18
521.0526    1.430035e-18
521.1536    1.436230e-18
521.2545    1.413545e-18
521.3555    1.405519e-18
521.4564    1.403738e-18
521.5573    1.397160e-18
521.6583    1.402137e-18
521.7592    1.384092e-18
521.8602    1.337624e-18
521.9611    1.389701e-18
522.0621    1.412254e-18
522.1630    1.375266e-18
522.2640    1.394425e-18
522.3649    1.405366e-18
522.4659    1.453181e-18
522.5668    1.466483e-18
522.6677    1.467000e-18
522.7687    1.470662e-18
522.8696    1.443813e-18
522.9706    1.480487e-18
523.0715    1.473348e-18
523.1725    1.444801e-18
523.2734    1.446774e-18
523.3744    1.417665e-18
523.4753    1.388767e-18
523.5763    1.340690e-18
523.6772    1.339823e-18
523.7781    1.386794e-18
523.8791    1.355696e-18
523.9800    1.351580e-18
524.0810    1.364833e-18
524.1819    1.345624e-18
524.2829    1.323835e-18
524.3838    1.348514e-18
524.4848    1.335048e-18
524.5857    1.322145e-18
524.6867    1.348360e-18
524.7876    1.422489e-18
524.8885    1.410739e-18
524.9895    1.357806e-18
525.0904    1.391186e-18
525.1914    1.407956e-18
525.2923    1.377718e-18
525.3933    1.336684e-18
525.4942    1.353080e-18
525.5952    1.372655e-18
525.6961    1.383375e-18
525.7971    1.345482e-18
525.8980    1.320383e-18
525.9989    1.325000e-18
526.0999    1.384577e-18
526.2008    1.361002e-18
526.3018    1.328919e-18
526.4027    1.385374e-18
526.5037    1.412789e-18
526.6046    1.445692e-18
526.7056    1.411782e-18
526.8065    1.437117e-18
526.9075    1.432801e-18
527.0084    1.402765e-18
527.1093    1.404950e-18
527.2103    1.367622e-18
527.3112    1.373137e-18
527.4122    1.368521e-18
527.5131    1.349514e-18
527.6141    1.365151e-18
527.7150    1.353546e-18
527.8160    1.347272e-18
527.9169    1.299129e-18
528.0179    1.298713e-18
528.1188    1.288449e-18
528.2197    1.327503e-18
528.3207    1.396519e-18
528.4216    1.394844e-18
528.5226    1.414138e-18
528.6235    1.376416e-18
528.7245    1.337174e-18
528.8254    1.447616e-18
528.9264    1.383409e-18
529.0273    1.344441e-18
529.1283    1.414084e-18
529.2292    1.353566e-18
529.3301    1.351112e-18
529.4311    1.375052e-18
529.5320    1.390357e-18
529.6330    1.361008e-18
529.7339    1.313146e-18
529.8349    1.362270e-18
529.9358    1.383458e-18
530.0368    1.333734e-18
530.1377    1.303828e-18
530.2387    1.363209e-18
530.3396    1.352793e-18
530.4405    1.372502e-18
530.5415    1.410887e-18
530.6424    1.434769e-18
530.7434    1.438454e-18
530.8443    1.380733e-18
530.9453    1.381447e-18
531.0462    1.401687e-18
531.1472    1.415652e-18
531.2481    1.454376e-18
531.3491    1.410221e-18
531.4500    1.400549e-18
531.5509    1.356584e-18
531.6519    1.307825e-18
531.7528    1.320721e-18
531.8538    1.364759e-18
531.9547    1.348184e-18
532.0557    1.341681e-18
532.1566    1.358792e-18
532.2576    1.348442e-18
532.3585    1.361686e-18
532.4595    1.350939e-18
532.5604    1.367197e-18
532.6613    1.360413e-18
532.7623    1.369340e-18
532.8632    1.371601e-18
532.9642    1.317494e-18
533.0651    1.324057e-18
533.1661    1.328737e-18
533.2670    1.396134e-18
533.3680    1.391256e-18
533.4689    1.384228e-18
533.5699    1.393556e-18
533.6708    1.320117e-18
533.7718    1.369238e-18
533.8727    1.400146e-18
533.9736    1.405746e-18
534.0746    1.318951e-18
534.1755    1.371482e-18
534.2765    1.375298e-18
534.3774    1.366510e-18
534.4784    1.352918e-18
534.5793    1.336714e-18
534.6803    1.421004e-18
534.7812    1.381907e-18
534.8822    1.394117e-18
534.9831    1.411177e-18
535.0840    1.358556e-18
535.1850    1.328243e-18
535.2859    1.392971e-18
535.3869    1.427347e-18
535.4878    1.351607e-18
535.5888    1.404436e-18
535.6897    1.400630e-18
535.7907    1.358233e-18
535.8916    1.310329e-18
535.9926    1.319250e-18
536.0935    1.304425e-18
536.1944    1.381028e-18
536.2954    1.407816e-18
536.3963    1.355993e-18
536.4973    1.396868e-18
536.5982    1.351078e-18
536.6992    1.371303e-18
536.8001    1.384671e-18
536.9011    1.420472e-18
537.0020    1.419297e-18
537.1030    1.347570e-18
537.2039    1.378959e-18
537.3048    1.381788e-18
537.4058    1.353931e-18
537.5067    1.373944e-18
537.6077    1.332317e-18
537.7086    1.379733e-18
537.8096    1.361766e-18
537.9105    1.376326e-18
538.0115    1.336575e-18
538.1124    1.387970e-18
538.2134    1.368091e-18
538.3143    1.347467e-18
538.4152    1.318114e-18
538.5162    1.304136e-18
538.6171    1.363134e-18
538.7181    1.348057e-18
538.8190    1.391586e-18
538.9200    1.374496e-18
539.0209    1.341847e-18
539.1219    1.195865e-18
539.2228    1.315896e-18
539.3238    1.295370e-18
539.4247    1.293415e-18
539.5256    1.278445e-18
539.6266    1.275138e-18
539.7275    1.304257e-18
539.8285    1.300450e-18
539.9294    1.331527e-18
540.0304    1.350826e-18
540.1313    1.281409e-18
540.2323    1.391668e-18
540.3332    1.321304e-18
540.4342    1.316403e-18
540.5351    1.379095e-18
540.6360    1.353554e-18
540.7370    1.375587e-18
540.8379    1.345278e-18
540.9389    1.334486e-18
541.0398    1.308519e-18
541.1408    1.329694e-18
541.2417    1.329980e-18
541.3427    1.349997e-18
541.4436    1.302464e-18
541.5446    1.276147e-18
541.6455    1.286044e-18
541.7464    1.368054e-18
541.8474    1.361376e-18
541.9483    1.311847e-18
542.0493    1.339956e-18
542.1502    1.318224e-18
542.2512    1.340206e-18
542.3521    1.372754e-18
542.4531    1.337722e-18
542.5540    1.324124e-18
542.6550    1.343110e-18
542.7559    1.355553e-18
542.8568    1.327692e-18
542.9578    1.387609e-18
543.0587    1.342112e-18
543.1597    1.394723e-18
543.2606    1.386597e-18
543.3616    1.298830e-18
543.4625    1.302377e-18
543.5635    1.301616e-18
543.6644    1.300855e-18
543.7654    1.300095e-18
543.8663    1.299334e-18
543.9672    1.298573e-18
544.0682    1.320429e-18
544.1691    1.310646e-18
544.2701    1.267648e-18
544.3710    1.456049e-18
544.4720    1.644450e-18
544.5729    1.164799e-18
544.6739    1.355541e-18
544.7748    1.305956e-18
544.8758    1.354241e-18
544.9767    1.345958e-18
545.0776    1.361176e-18
545.1786    1.352531e-18
545.2795    1.356373e-18
545.3805    1.349599e-18
545.4814    1.329262e-18
545.5824    1.333359e-18
545.6833    1.307473e-18
545.7843    1.307091e-18
545.8852    1.331395e-18
545.9862    1.340899e-18
546.0871    1.334302e-18
546.1880    1.316164e-18
546.2890    1.327156e-18
546.3899    1.310366e-18
546.4909    1.281314e-18
546.5918    1.329089e-18
546.6928    1.305683e-18
546.7937    1.263754e-18
546.8947    1.326609e-18
546.9956    1.298712e-18
547.0966    1.284440e-18
547.1975    1.321602e-18
547.2984    1.359075e-18
547.3994    1.327463e-18
547.5003    1.336043e-18
547.6013    1.310210e-18
547.7022    1.322922e-18
547.8032    1.325407e-18
547.9041    1.307669e-18
548.0051    1.304560e-18
548.1060    1.044002e-18
548.2070    1.099982e-18
548.3079    1.155961e-18
548.4088    1.211941e-18
548.5098    1.267921e-18
548.6107    1.323901e-18
548.7117    1.379880e-18
548.8126    1.342465e-18
548.9136    1.384818e-18
549.0145    1.341441e-18
549.1155    1.345568e-18
549.2164    1.391414e-18
549.3174    1.350503e-18
549.4183    1.307243e-18
549.5192    1.333609e-18
549.6202    1.287330e-18
549.7211    1.290655e-18
549.8221    1.308878e-18
549.9230    1.309241e-18
550.0240    1.294994e-18
550.1249    1.290011e-18
550.2259    1.287535e-18
550.3268    1.310181e-18
550.4278    1.301549e-18
550.5287    1.311056e-18
550.6296    1.245969e-18
550.7306    1.266542e-18
550.8315    1.269027e-18
550.9325    1.294283e-18
551.0334    1.317330e-18
551.1344    1.306742e-18
551.2353    1.286039e-18
551.3363    1.299304e-18
551.4372    1.305220e-18
551.5382    1.332801e-18
551.6391    1.319249e-18
551.7400    1.279583e-18
551.8410    1.268937e-18
551.9419    1.316944e-18
552.0429    1.271335e-18
552.1438    1.278641e-18
552.2448    1.296827e-18
552.3457    1.284966e-18
552.4467    1.238897e-18
552.5476    1.330347e-18
552.6486    1.327048e-18
552.7495    1.306264e-18
552.8504    1.360068e-18
552.9514    1.359518e-18
553.0523    1.347896e-18
553.1533    1.299916e-18
553.2542    1.323111e-18
553.3552    1.280808e-18
553.4561    1.339087e-18
553.5571    1.352675e-18
553.6580    1.241308e-18
553.7590    1.356932e-18
553.8599    1.297537e-18
553.9608    1.318834e-18
554.0618    1.298259e-18
554.1627    1.283223e-18
554.2637    1.269046e-18
554.3646    1.216228e-18
554.4656    1.271254e-18
554.5665    1.256730e-18
554.6675    1.212681e-18
554.7684    1.286918e-18
554.8694    1.277489e-18
554.9703    1.283962e-18
555.0712    1.251638e-18
555.1722    1.261460e-18
555.2731    1.264519e-18
555.3741    1.318418e-18
555.4750    1.275909e-18
555.5760    1.243145e-18
555.6769    1.257671e-18
555.7779    1.265598e-18
555.8788    1.271536e-18
555.9798    1.323129e-18
556.0807    1.310067e-18
556.1816    1.317324e-18
556.2826    1.309176e-18
556.3835    1.266031e-18
556.4845    1.269157e-18
556.5854    1.312658e-18
556.6864    1.287192e-18
556.7873    1.247461e-18
556.8883    1.292389e-18
556.9892    1.327816e-18
557.0902    1.276973e-18
557.1911    1.338911e-18
557.2920    1.254252e-18
557.3930    1.323140e-18
557.4939    1.277738e-18
557.5949    1.295101e-18
557.6958    1.322040e-18
557.7968    1.292647e-18
557.8977    1.303074e-18
557.9987    1.258123e-18
558.0996    1.221756e-18
558.2006    1.216648e-18
558.3015    1.298128e-18
558.4024    1.292455e-18
558.5034    1.263895e-18
558.6043    1.245619e-18
558.7053    1.228351e-18
558.8062    1.267544e-18
558.9072    1.280584e-18
559.0081    1.260097e-18
559.1091    1.233753e-18
559.2100    1.290888e-18
559.3110    1.270138e-18
559.4119    1.239578e-18
559.5128    1.288813e-18
559.6138    1.285055e-18
559.7147    1.275932e-18
559.8157    1.243243e-18
559.9166    1.207256e-18
560.0176    1.226994e-18
560.1185    1.234654e-18
560.2195    1.268822e-18
560.3204    1.253245e-18
560.4214    1.236150e-18
560.5223    1.239057e-18
560.6232    1.260739e-18
560.7242    1.237501e-18
560.8251    1.240619e-18
560.9261    1.245469e-18
561.0270    1.272444e-18
561.1280    1.261368e-18
561.2289    1.221238e-18
561.3299    1.249638e-18
561.4308    1.317706e-18
561.5318    1.309912e-18
561.6327    1.253033e-18
561.7336    1.220092e-18
561.8346    1.244980e-18
561.9355    1.305155e-18
562.0365    1.272698e-18
562.1374    1.218909e-18
562.2384    1.248875e-18
562.3393    1.332906e-18
562.4403    1.276706e-18
562.5412    1.203551e-18
562.6422    1.259454e-18
562.7431    1.261239e-18
562.8440    1.269186e-18
562.9450    1.304332e-18
563.0459    1.280430e-18
563.1469    1.199996e-18
563.2478    1.240565e-18
563.3488    1.235657e-18
563.4497    1.282557e-18
563.5507    1.270123e-18
563.6516    1.249634e-18
563.7526    1.251948e-18
563.8535    1.242569e-18
563.9544    1.261359e-18
564.0554    1.241860e-18
564.1563    1.251563e-18
564.2573    1.262743e-18
564.3582    1.233553e-18
564.4592    1.241065e-18
564.5601    1.250750e-18
564.6611    1.266488e-18
564.7620    1.258717e-18
564.8630    1.256318e-18
564.9639    1.237936e-18
565.0648    1.242517e-18
565.1658    1.277439e-18
565.2667    1.234003e-18
565.3677    1.226249e-18
565.4686    1.227981e-18
565.5696    1.181042e-18
565.6705    1.213343e-18
565.7715    1.250637e-18
565.8724    1.208745e-18
565.9734    1.179630e-18
566.0743    1.244865e-18
566.1752    1.248883e-18
566.2762    1.211212e-18
566.3771    1.197055e-18
566.4781    1.212260e-18
566.5790    1.253806e-18
566.6800    1.218681e-18
566.7809    1.282722e-18
566.8819    1.233547e-18
566.9828    1.211384e-18
567.0838    1.206192e-18
567.1847    1.221885e-18
567.2856    1.254470e-18
567.3866    1.208773e-18
567.4875    1.217270e-18
567.5885    1.216454e-18
567.6894    1.221674e-18
567.7904    1.215529e-18
567.8913    1.222310e-18
567.9923    1.227987e-18
568.0932    1.226118e-18
568.1942    1.265240e-18
568.2951    1.229287e-18
568.3960    1.250142e-18
568.4970    1.243566e-18
568.5979    1.247515e-18
568.6989    1.253780e-18
568.7998    1.226642e-18
568.9008    1.215001e-18
569.0017    1.223197e-18
569.1027    1.189960e-18
569.2036    1.158345e-18
569.3046    1.223703e-18
569.4055    1.219412e-18
569.5064    1.217637e-18
569.6074    1.214275e-18
569.7083    1.211308e-18
569.8093    1.205582e-18
569.9102    1.181595e-18
570.0112    1.188910e-18
570.1121    1.194287e-18
570.2131    1.215879e-18
570.3140    1.199578e-18
570.4150    1.222738e-18
570.5159    1.216080e-18
570.6169    1.243085e-18
570.7178    1.206188e-18
570.8187    1.222905e-18
570.9197    1.214363e-18
571.0206    1.196734e-18
571.1216    1.183416e-18
571.2225    1.225097e-18
571.3235    1.220693e-18
571.4244    1.222984e-18
571.5254    1.195943e-18
571.6263    1.216155e-18
571.7273    1.192328e-18
571.8282    1.228024e-18
571.9291    1.191293e-18
572.0301    1.254473e-18
572.1310    1.238733e-18
572.2320    1.215457e-18
572.3329    1.219469e-18
572.4339    1.212206e-18
572.5348    1.233135e-18
572.6358    1.188471e-18
572.7367    1.213727e-18
572.8377    1.213684e-18
572.9386    1.198970e-18
573.0395    1.222835e-18
573.1405    1.194855e-18
573.2414    1.180188e-18
573.3424    1.200177e-18
573.4433    1.193943e-18
573.5443    1.172133e-18
573.6452    1.140794e-18
573.7462    1.132800e-18
573.8471    1.167627e-18
573.9481    1.182417e-18
574.0490    1.190420e-18
574.1499    1.171197e-18
574.2509    1.158879e-18
574.3518    1.172844e-18
574.4528    1.211796e-18
574.5537    1.205908e-18
574.6547    1.211352e-18
574.7556    1.210330e-18
574.8566    1.222383e-18
574.9575    1.216187e-18
575.0585    1.201254e-18
575.1594    1.185286e-18
575.2603    1.191455e-18
575.3613    1.208807e-18
575.4622    1.205677e-18
575.5632    1.221632e-18
575.6641    1.169542e-18
575.7651    1.185690e-18
575.8660    1.206967e-18
575.9670    1.195906e-18
576.0679    1.164662e-18
576.1689    1.197111e-18
576.2698    1.146148e-18
576.3707    1.203298e-18
576.4717    1.174919e-18
576.5726    1.141600e-18
576.6736    1.138270e-18
576.7745    1.177584e-18
576.8755    1.159230e-18
576.9764    1.172979e-18
577.0774    1.180545e-18
577.1783    1.204548e-18
577.2793    1.149838e-18
577.3802    1.180285e-18
577.4811    1.160071e-18
577.5821    1.153032e-18
577.6830    1.202333e-18
577.7840    1.185447e-18
577.8849    1.148418e-18
577.9859    1.150317e-18
578.0868    1.142838e-18
578.1878    1.152298e-18
578.2887    1.206244e-18
578.3897    1.195330e-18
578.4906    1.145219e-18
578.5915    1.163444e-18
578.6925    1.150023e-18
578.7934    1.161198e-18
578.8944    1.162185e-18
578.9953    1.167006e-18
579.0963    1.161997e-18
579.1972    1.170903e-18
579.2982    1.142926e-18
579.3991    1.127568e-18
579.5001    1.136358e-18
579.6010    1.158667e-18
579.7019    1.165912e-18
579.8029    1.194642e-18
579.9038    1.211494e-18
580.0048    1.174684e-18
580.1057    1.169039e-18
580.2067    1.214189e-18
580.3076    1.150978e-18
580.4086    1.158216e-18
580.5095    1.172851e-18
580.6105    1.168358e-18
580.7114    1.185156e-18
580.8123    1.128893e-18
580.9133    1.122322e-18
581.0142    1.121675e-18
581.1152    1.179780e-18
581.2161    1.213911e-18
581.3171    1.220723e-18
581.4180    1.227729e-18
581.5190    1.211406e-18
581.6199    1.182881e-18
581.7209    1.186549e-18
581.8218    1.176654e-18
581.9227    1.189143e-18
582.0237    1.174904e-18
582.1246    1.180027e-18
582.2256    1.189086e-18
582.3265    1.159941e-18
582.4275    1.174632e-18
582.5284    1.165050e-18
582.6294    1.139490e-18
582.7303    1.140544e-18
582.8313    1.195107e-18
582.9322    1.171695e-18
583.0331    1.152285e-18
583.1341    1.207683e-18
583.2350    1.193659e-18
583.3360    1.123902e-18
583.4369    1.163654e-18
583.5379    1.189216e-18
583.6388    1.130477e-18
583.7398    1.150819e-18
583.8407    1.145830e-18
583.9417    1.152039e-18
584.0426    1.164792e-18
584.1435    1.203817e-18
584.2445    1.199171e-18
584.3454    1.195557e-18
584.4464    1.205158e-18
584.5473    1.170899e-18
584.6483    1.149597e-18
584.7492    1.141078e-18
584.8502    1.206009e-18
584.9511    1.188584e-18
585.0521    1.151788e-18
585.1530    1.172011e-18
585.2539    1.118577e-18
585.3549    1.131162e-18
585.4558    1.153778e-18
585.5568    1.160953e-18
585.6577    1.148663e-18
585.7587    1.176512e-18
585.8596    1.172361e-18
585.9606    1.184554e-18
586.0615    1.186376e-18
586.1625    1.161860e-18
586.2634    1.079700e-18
586.3643    1.133336e-18
586.4653    1.137985e-18
586.5662    1.136660e-18
586.6672    1.160038e-18
586.7681    1.164484e-18
586.8691    1.112985e-18
586.9700    1.140194e-18
587.0710    1.138258e-18
587.1719    1.146226e-18
587.2729    1.151194e-18
587.3738    1.129456e-18
587.4747    1.175433e-18
587.5757    1.139146e-18
587.6766    1.110926e-18
587.7776    1.153414e-18
587.8785    1.171046e-18
587.9795    1.139273e-18
588.0804    1.163090e-18
588.1814    1.157564e-18
588.2823    1.168522e-18
588.3833    1.200804e-18
588.4842    1.204308e-18
588.5851    1.157217e-18
588.6861    1.129623e-18
588.7870    1.135665e-18
588.8880    1.131988e-18
588.9889    1.146334e-18
589.0899    1.152162e-18
589.1908    1.164534e-18
589.2918    1.161582e-18
589.3927    1.168889e-18
589.4937    1.125053e-18
589.5946    1.089466e-18
589.6955    1.110748e-18
589.7965    1.149473e-18
589.8974    1.146457e-18
589.9984    1.148380e-18
590.0993    1.115766e-18
590.2003    1.123250e-18
590.3012    1.143523e-18
590.4022    1.112533e-18
590.5031    1.177094e-18
590.6041    1.154605e-18
590.7050    1.143337e-18
590.8059    1.157326e-18
590.9069    1.122649e-18
591.0078    1.121928e-18
591.1088    1.191343e-18
591.2097    1.134806e-18
591.3107    1.122576e-18
591.4116    1.118097e-18
591.5126    1.183908e-18
591.6135    1.136616e-18
591.7145    1.089405e-18
591.8154    1.161905e-18
591.9163    1.150401e-18
592.0173    1.121789e-18
592.1182    1.120715e-18
592.2192    1.105957e-18
592.3201    1.128127e-18
592.4211    1.185251e-18
592.5220    1.180299e-18
592.6230    1.121787e-18
592.7239    1.129209e-18
592.8249    1.111087e-18
592.9258    1.101200e-18
593.0267    1.097002e-18
593.1277    1.113041e-18
593.2286    1.081278e-18
593.3296    1.081476e-18
593.4305    1.138554e-18
593.5315    1.127577e-18
593.6324    1.123947e-18
593.7334    1.066820e-18
593.8343    1.104503e-18
593.9353    1.077858e-18
594.0362    1.066061e-18
594.1371    1.110380e-18
594.2381    1.093830e-18
594.3390    1.086453e-18
594.4400    1.058547e-18
594.5409    1.091250e-18
594.6419    1.124793e-18
594.7428    1.099496e-18
594.8438    1.108962e-18
594.9447    1.108604e-18
595.0457    1.173326e-18
595.1466    1.244029e-18
595.2475    1.304816e-18
595.3485    1.383213e-18
595.4494    1.415473e-18
595.5504    1.492638e-18
595.6513    1.521157e-18
595.7523    1.456944e-18
595.8532    1.409175e-18
595.9542    1.342767e-18
596.0551    1.244571e-18
596.1561    1.161955e-18
596.2570    1.140938e-18
596.3579    1.123196e-18
596.4589    1.117013e-18
596.5598    1.091564e-18
596.6608    1.076932e-18
596.7617    1.063070e-18
596.8627    1.076227e-18
596.9636    1.057453e-18
597.0646    1.081570e-18
597.1655    1.049200e-18
597.2665    1.028194e-18
597.3674    1.043014e-18
597.4683    1.025107e-18
597.5693    1.003636e-18
597.6702    1.061931e-18
597.7712    1.058424e-18
597.8721    1.057167e-18
597.9731    1.080432e-18
598.0740    1.101614e-18
598.1750    1.078922e-18
598.2759    1.074777e-18
598.3769    1.052656e-18
598.4778    1.064968e-18
598.5787    1.092250e-18
598.6797    1.112559e-18
598.7806    1.091270e-18
598.8816    1.073962e-18
598.9825    1.049567e-18
599.0835    1.058401e-18
599.1844    1.070218e-18
599.2854    1.046830e-18
599.3863    1.051452e-18
599.4873    1.083026e-18
599.5882    1.083745e-18
599.6891    1.076132e-18
599.7901    1.049778e-18
599.8910    1.082263e-18
599.9920    1.077265e-18
600.0929    1.051850e-18
600.1939    1.072750e-18
600.2948    1.095526e-18
600.3958    1.076693e-18
600.4967    1.084305e-18
600.5977    1.061481e-18
600.6986    1.068720e-18
600.7995    1.079327e-18
600.9005    1.066834e-18
601.0014    1.064068e-18
601.1024    1.075069e-18
601.2033    1.064883e-18
601.3043    1.056559e-18
601.4052    1.073363e-18
601.5062    1.064678e-18
601.6071    1.075922e-18
601.7081    1.068757e-18
601.8090    1.101281e-18
601.9099    1.089660e-18
602.0109    1.068070e-18
602.1118    1.032257e-18
602.2128    1.087587e-18
602.3137    1.090351e-18
602.4147    1.088741e-18
602.5156    1.079373e-18
602.6166    1.086319e-18
602.7175    1.072854e-18
602.8185    1.075539e-18
602.9194    1.066364e-18
603.0203    1.086174e-18
603.1213    1.085475e-18
603.2222    1.097889e-18
603.3232    1.084949e-18
603.4241    1.080661e-18
603.5251    1.121939e-18
603.6260    1.090828e-18
603.7270    1.034529e-18
603.8279    1.019525e-18
603.9289    1.045879e-18
604.0298    1.081971e-18
604.1307    1.095750e-18
604.2317    1.076406e-18
604.3326    1.079839e-18
604.4336    1.096611e-18
604.5345    1.089240e-18
604.6355    1.104737e-18
604.7364    1.068268e-18
604.8374    1.083827e-18
604.9383    1.058903e-18
605.0393    1.119478e-18
605.1402    1.154654e-18
605.2411    1.072118e-18
605.3421    1.075590e-18
605.4430    1.088887e-18
605.5440    1.082693e-18
605.6449    1.043875e-18
605.7459    1.095542e-18
605.8468    1.042858e-18
605.9478    1.058117e-18
606.0487    1.036762e-18
606.1497    1.043388e-18
606.2506    1.060299e-18
606.3515    1.036607e-18
606.4525    1.076719e-18
606.5534    1.063257e-18
606.6544    1.086556e-18
606.7553    1.063991e-18
606.8563    1.060755e-18
606.9572    1.017610e-18
607.0582    1.016485e-18
607.1591    1.055336e-18
607.2601    1.021296e-18
607.3610    1.011425e-18
607.4619    1.077714e-18
607.5629    1.046157e-18
607.6638    1.038113e-18
607.7648    1.018072e-18
607.8657    1.024956e-18
607.9667    1.070534e-18
608.0676    1.044552e-18
608.1686    1.021400e-18
608.2695    1.053463e-18
608.3705    1.078192e-18
608.4714    1.047021e-18
608.5724    1.074923e-18
608.6733    1.034177e-18
608.7742    1.067102e-18
608.8752    9.934054e-19
608.9761    9.827673e-19
609.0771    1.045653e-18
609.1780    1.021455e-18
609.2790    9.932955e-19
609.3799    9.971379e-19
609.4809    1.030027e-18
609.5818    1.112836e-18
609.6828    1.051524e-18
609.7837    9.857400e-19
609.8846    1.060394e-18
609.9856    9.643767e-19
610.0865    1.021037e-18
610.1875    1.039255e-18
610.2884    9.277870e-19
610.3894    9.868773e-19
610.4903    1.026660e-18
610.5913    1.062368e-18
610.6922    1.026721e-18
610.7932    1.032345e-18
610.8941    9.639027e-19
610.9950    1.045152e-18
611.0960    1.046519e-18
611.1969    1.049608e-18
611.2979    1.074527e-18
611.3988    1.080282e-18
611.4998    1.028128e-18
611.6007    9.941183e-19
611.7017    1.019922e-18
611.8026    1.029609e-18
611.9036    1.037115e-18
612.0045    nan
612.1054    nan
612.2064    nan
612.3073    nan
612.4083    nan
612.5092    nan
612.6102    nan
612.7111    nan
612.8121    nan
612.9130    nan
613.0140    nan
613.1149    nan
613.2158    nan
613.3168    nan
613.4177    nan
613.5187    nan
613.6196    nan
613.7206    nan
613.8215    nan
613.9225    nan
614.0234    nan
614.1244    nan
614.2253    nan
614.3262    nan
614.4272    nan
614.5281    nan
614.6291    nan
614.7300    nan
614.8310    nan
614.9319    nan
615.0329    nan
615.1338    nan
615.2348    nan
615.3357    nan
615.4366    nan
615.5376    nan
615.6385    nan
615.7395    nan
615.8404    nan
615.9414    nan
616.0423    nan
616.1433    nan
616.2442    nan
616.3452    nan
616.4461    nan
616.5470    nan
616.6480    nan
616.7489    nan
616.8499    nan
616.9508    nan
617.0518    nan
617.1527    nan
617.2537    nan
617.3546    nan
617.4556    nan
617.5565    nan
617.6574    nan
617.7584    nan
617.8593    nan
617.9603    nan
618.0612    nan
618.1622    nan
618.2631    nan
618.3641    nan
618.4650    nan
618.5660    nan
618.6669    nan
618.7678    nan
618.8688    nan
618.9697    nan
619.0707    nan
619.1716    nan
619.2726    nan
619.3735    nan
619.4745    nan
619.5754    nan
619.6764    nan
619.7773    nan
619.8782    nan
619.9792    nan
620.0801    nan
620.1811    nan
620.2820    nan
620.3830    nan
620.4839    nan
620.5849    nan
620.6858    nan
620.7868    nan
620.8877    nan
620.9886    nan
621.0896    nan
621.1905    nan
621.2915    nan
621.3924    nan
621.4934    nan
621.5943    nan
621.6953    nan
621.7962    nan
621.8972    nan
621.9981    nan
622.0990    nan
622.2000    nan
622.3009    nan
622.4019    nan
622.5028    nan
622.6038    nan
622.7047    nan
622.8057    nan
622.9066    nan
623.0076    nan
623.1085    nan
623.2094    nan
623.3104    nan
623.4113    nan
623.5123    nan
623.6132    nan
623.7142    nan
623.8151    nan
623.9161    nan
624.0170    nan
624.1180    nan
624.2189    nan
624.3198    nan
624.4208    nan
624.5217    nan
624.6227    nan
624.7236    nan
624.8246    nan
624.9255    nan
625.0265    nan
625.1274    nan
625.2284    nan
625.3293    nan
625.4302    nan
625.5312    nan
625.6321    nan
625.7331    nan
625.8340    nan
625.9350    nan
626.0359    nan
626.1369    nan
626.2378    nan
626.3388    nan
626.4397    nan
626.5406    nan
626.6416    nan
626.7425    nan
626.8435    nan
626.9444    nan
627.0454    nan
627.1463    nan
627.2473    nan
627.3482    nan
627.4492    nan
627.5501    nan
627.6510    nan
627.7520    nan
627.8529    nan
627.9539    nan
628.0548    nan
628.1558    nan
628.2567    nan
628.3577    nan
628.4586    nan
628.5596    nan
628.6605    nan
628.7614    nan
628.8624    nan
628.9633    nan
629.0643    nan
629.1652    nan
629.2662    nan
629.3671    nan
629.4681    nan
629.5690    nan
629.6700    nan
629.7709    nan
629.8718    nan
629.9728    nan
630.0737    nan
630.1747    nan
630.2756    nan
630.3766    nan
630.4775    nan
630.5785    nan
630.6794    nan
630.7804    nan
630.8813    nan
630.9822    nan
631.0832    nan
631.1841    nan
631.2851    nan
631.3860    nan
631.4870    nan
631.5879    nan
631.6889    nan
631.7898    nan
631.8908    nan
631.9917    nan
632.0926    nan
632.1936    nan
632.2945    nan
632.3955    nan
632.4964    nan
632.5974    nan
632.6983    nan
632.7993    nan
632.9002    nan
633.0012    nan
633.1021    nan
633.2030    nan
633.3040    nan
633.4049    nan
633.5059    nan
633.6068    nan
633.7078    nan
633.8087    nan
633.9097    nan
634.0106    nan
634.1116    nan
634.2125    nan
634.3134    nan
634.4144    nan
634.5153    nan
634.6163    nan
634.7172    nan
634.8182    nan
634.9191    nan
635.0201    nan
635.1210    nan
635.2220    nan
635.3229    nan
635.4238    nan
635.5248    nan
635.6257    nan
635.7267    nan
635.8276    nan
635.9286    nan
636.0295    nan
636.1305    nan
636.2314    nan
636.3324    nan
636.4333    nan
636.5342    nan
636.6352    nan
636.7361    nan
636.8371    nan
636.9380    nan
637.0390    nan
637.1399    nan
637.2409    nan
637.3418    nan
637.4428    nan
637.5437    nan
637.6446    nan
637.7456    nan
637.8465    nan
637.9475    nan
638.0484    1.052951e-18
638.1494    1.066519e-18
638.2503    1.079581e-18
638.3513    1.100403e-18
638.4522    1.092285e-18
638.5532    1.162854e-18
638.6541    1.224700e-18
638.7550    1.215134e-18
638.8560    1.184261e-18
638.9569    1.121796e-18
639.0579    1.097774e-18
639.1588    1.066369e-18
639.2598    1.029568e-18
639.3607    1.077059e-18
639.4617    1.064778e-18
639.5626    9.985164e-19
639.6636    9.937793e-19
639.7645    1.029613e-18
639.8654    1.045948e-18
639.9664    1.070963e-18
640.0673    1.094518e-18
640.1683    1.030874e-18
640.2692    1.038541e-18
640.3702    9.801059e-19
640.4711    9.541382e-19
640.5721    1.027460e-18
640.6730    9.817177e-19
640.7740    1.000722e-18
640.8749    9.884985e-19
640.9758    1.021282e-18
641.0768    9.719004e-19
641.1777    9.400769e-19
641.2787    9.989049e-19
641.3796    9.595276e-19
641.4806    9.356445e-19
641.5815    9.797988e-19
641.6825    1.017915e-18
641.7834    9.712662e-19
641.8844    9.752097e-19
641.9853    1.007541e-18
642.0862    9.504282e-19
642.1872    9.764049e-19
642.2881    1.010734e-18
642.3891    9.799586e-19
642.4900    9.836428e-19
642.5910    9.530332e-19
642.6919    9.544455e-19
642.7929    9.602614e-19
642.8938    9.543275e-19
642.9948    9.567397e-19
643.0957    9.820868e-19
643.1966    1.001563e-18
643.2976    9.626795e-19
643.3985    9.832366e-19
643.4995    9.864075e-19
643.6004    9.421587e-19
643.7014    9.429379e-19
643.8023    9.750992e-19
643.9033    9.735353e-19
644.0042    9.957220e-19
644.1052    9.515789e-19
644.2061    9.707303e-19
644.3070    9.549148e-19
644.4080    9.489903e-19
644.5089    9.636592e-19
644.6099    9.783857e-19
644.7108    1.014359e-18
644.8118    1.001354e-18
644.9127    9.992918e-19
645.0137    9.897612e-19
645.1146    9.965179e-19
645.2156    1.047034e-18
645.3165    1.030703e-18
645.4175    1.038843e-18
645.5184    1.030005e-18
645.6193    9.798386e-19
645.7203    9.994534e-19
645.8212    9.817897e-19
645.9222    9.835303e-19
646.0231    9.874291e-19
646.1241    9.344930e-19
646.2250    9.407946e-19
646.3260    9.486251e-19
646.4269    9.512632e-19
646.5279    9.351208e-19
646.6288    9.739231e-19
646.7297    9.619687e-19
646.8307    9.201545e-19
646.9316    9.674296e-19
647.0326    9.719566e-19
647.1335    9.897948e-19
647.2345    9.474237e-19
647.3354    9.138952e-19
647.4364    9.152748e-19
647.5373    9.414099e-19
647.6383    9.467061e-19
647.7392    9.207526e-19
647.8401    9.190015e-19
647.9411    9.140082e-19
648.0420    9.278246e-19
648.1430    9.193383e-19
648.2439    8.792636e-19
648.3449    9.213929e-19
648.4458    9.339832e-19
648.5468    9.014260e-19
648.6477    9.325176e-19
648.7487    9.664016e-19
648.8496    9.390043e-19
648.9505    9.255970e-19
649.0515    9.345610e-19
649.1524    9.225148e-19
649.2534    9.285155e-19
649.3543    9.465065e-19
649.4553    9.507002e-19
649.5562    9.566149e-19
649.6572    9.131237e-19
649.7581    9.220766e-19
649.8591    9.464432e-19
649.9600    9.819323e-19
650.0609    9.696043e-19
650.1619    9.470535e-19
650.2628    1.006937e-18
650.3638    9.502306e-19
650.4647    9.622576e-19
650.5657    9.292223e-19
650.6666    9.488707e-19
650.7676    9.390625e-19
650.8685    9.279786e-19
650.9695    9.307764e-19
651.0704    8.894195e-19
651.1713    9.429995e-19
651.2723    9.478153e-19
651.3732    9.299865e-19
651.4742    9.317590e-19
651.5751    9.319469e-19
651.6761    9.383579e-19
651.7770    9.369135e-19
651.8780    9.636238e-19
651.9789    9.398083e-19
652.0799    8.955056e-19
652.1808    9.117610e-19
652.2817    9.174856e-19
652.3827    9.261911e-19
652.4836    9.307033e-19
652.5846    9.138661e-19
652.6855    9.548892e-19
652.7865    9.923947e-19
652.8874    9.553431e-19
652.9884    9.778581e-19
653.0893    9.173678e-19
653.1903    9.523972e-19
653.2912    9.716033e-19
653.3921    9.328209e-19
653.4931    9.302239e-19
653.5940    9.241041e-19
653.6950    9.122824e-19
653.7959    9.089286e-19
653.8969    9.289959e-19
653.9978    9.151285e-19
654.0988    9.210851e-19
654.1997    9.145848e-19
654.3007    9.374460e-19
654.4016    9.270265e-19
654.5025    9.145214e-19
654.6035    9.100664e-19
654.7044    9.009278e-19
654.8054    9.001943e-19
654.9063    8.952099e-19
655.0073    9.099724e-19
655.1082    9.034180e-19
655.2092    9.270398e-19
655.3101    9.525792e-19
655.4111    9.377992e-19
655.5120    9.260173e-19
655.6129    8.907337e-19
655.7139    9.244891e-19
655.8148    9.164543e-19
655.9158    9.226590e-19
656.0167    9.434702e-19
656.1177    9.180098e-19
656.2186    9.319843e-19
656.3196    9.253560e-19
656.4205    9.216655e-19
656.5215    9.020637e-19
656.6224    9.180167e-19
656.7233    9.160069e-19
656.8243    9.137877e-19
656.9252    9.183798e-19
657.0262    8.933868e-19
657.1271    9.418683e-19
657.2281    9.446504e-19
657.3290    9.430336e-19
657.4300    9.546729e-19
657.5309    8.963023e-19
657.6319    8.847156e-19
657.7328    9.281665e-19
657.8337    8.873292e-19
657.9347    9.218057e-19
658.0356    9.235243e-19
658.1366    9.401959e-19
658.2375    8.917093e-19
658.3385    8.724991e-19
658.4394    9.128657e-19
658.5404    8.623713e-19
658.6413    8.683816e-19
658.7423    9.071518e-19
658.8432    8.828580e-19
658.9441    8.988369e-19
659.0451    8.936294e-19
659.1460    8.886602e-19
659.2470    8.988440e-19
659.3479    9.568245e-19
659.4489    9.510397e-19
659.5498    9.307847e-19
659.6508    9.701785e-19
659.7517    9.331202e-19
659.8527    9.248951e-19
659.9536    9.311526e-19
660.0545    9.374078e-19
660.1555    9.342452e-19
660.2564    9.132837e-19
660.3574    9.074548e-19
660.4583    9.403293e-19
660.5593    9.427261e-19
660.6602    9.504679e-19
660.7612    9.302238e-19
660.8621    9.088412e-19
660.9631    8.895163e-19
661.0640    9.194796e-19
661.1649    9.323402e-19
661.2659    9.391841e-19
661.3668    9.429786e-19
661.4678    9.153111e-19
661.5687    9.289583e-19
661.6697    9.261993e-19
661.7706    9.055944e-19
661.8716    8.836717e-19
661.9725    9.262119e-19
662.0735    9.297057e-19
662.1744    9.319157e-19
662.2753    9.147444e-19
662.3763    9.533118e-19
662.4772    1.004123e-18
662.5782    9.818606e-19
662.6791    8.549304e-19
662.7801    9.127477e-19
662.8810    9.246769e-19
662.9820    9.069301e-19
663.0829    9.105726e-19
663.1839    9.304883e-19
663.2848    9.500391e-19
663.3857    9.451792e-19
663.4867    9.487611e-19
663.5876    9.503698e-19
663.6886    1.313553e-18
663.7895    8.960081e-19
663.8905    1.055082e-18
663.9914    9.861426e-19
664.0924    9.817447e-19
664.1933    9.634383e-19
664.2943    9.583718e-19
664.3952    9.069293e-19
664.4961    9.315139e-19
664.5971    1.193236e-18
664.6980    2.354457e-18
664.7990    4.729247e-18
664.8999    6.876476e-18
665.0009    8.616820e-18
665.1018    1.053662e-17
665.2028    1.215777e-17
665.3037    1.293237e-17
665.4047    1.247871e-17
665.5056    1.060341e-17
665.6065    8.595208e-18
665.7075    6.726209e-18
665.8084    4.519341e-18
665.9094    1.884295e-18
666.0103    1.018811e-18
666.1113    9.263099e-19
666.2122    9.029056e-19
666.3132    8.737616e-19
666.4141    9.057654e-19
666.5151    8.972586e-19
666.6160    8.671620e-19
666.7169    9.302014e-19
666.8179    9.956009e-19
666.9188    1.086345e-18
667.0198    1.157305e-18
667.1207    1.149292e-18
667.2217    1.172005e-18
667.3226    1.216102e-18
667.4236    1.244590e-18
667.5245    1.233076e-18
667.6255    1.215567e-18
667.7264    1.169449e-18
667.8273    1.124455e-18
667.9283    1.005104e-18
668.0292    9.431879e-19
668.1302    8.904750e-19
668.2311    9.165047e-19
668.3321    9.013261e-19
668.4330    9.205604e-19
668.5340    9.254830e-19
668.6349    9.019555e-19
668.7359    9.150659e-19
668.8368    8.762320e-19
668.9377    9.086498e-19
669.0387    9.147925e-19
669.1396    8.960449e-19
669.2406    8.896327e-19
669.3415    9.134798e-19
669.4425    9.071246e-19
669.5434    9.133777e-19
669.6444    9.241073e-19
669.7453    9.338839e-19
669.8463    9.196230e-19
669.9472    8.813044e-19
670.0481    9.123532e-19
670.1491    9.274776e-19
670.2500    8.935567e-19
670.3510    8.911072e-19
670.4519    9.127416e-19
670.5529    8.945811e-19
670.6538    8.974804e-19
670.7548    9.180524e-19
670.8557    9.022904e-19
670.9567    8.819708e-19
671.0576    8.855280e-19
671.1585    8.741201e-19
671.2595    8.828374e-19
671.3604    8.843185e-19
671.4614    9.160005e-19
671.5623    9.243943e-19
671.6633    9.413926e-19
671.7642    9.614403e-19
671.8652    9.700934e-19
671.9661    9.168339e-19
672.0671    8.826845e-19
672.1680    8.803439e-19
672.2689    8.975017e-19
672.3699    8.877968e-19
672.4708    9.024741e-19
672.5718    9.205388e-19
672.6727    9.065241e-19
672.7737    8.919551e-19
672.8746    9.153671e-19
672.9756    8.767313e-19
673.0765    8.856394e-19
673.1775    9.657255e-19
673.2784    8.890012e-19
673.3793    8.982003e-19
673.4803    8.919808e-19
673.5812    8.915509e-19
673.6822    8.707189e-19
673.7831    8.591936e-19
673.8841    8.702497e-19
673.9850    8.609515e-19
674.0860    9.143265e-19
674.1869    8.786517e-19
674.2879    8.711449e-19
674.3888    8.617398e-19
674.4897    9.182973e-19
674.5907    8.860777e-19
674.6916    8.998461e-19
674.7926    8.950254e-19
674.8935    8.889223e-19
674.9945    8.724575e-19
675.0954    8.714507e-19
675.1964    8.674438e-19
675.2973    9.111278e-19
675.3983    9.101133e-19
675.4992    8.913754e-19
675.6001    8.824075e-19
675.7011    9.093208e-19
675.8020    8.937069e-19
675.9030    8.445522e-19
676.0039    8.755614e-19
676.1049    8.909311e-19
676.2058    8.889971e-19
676.3068    9.202036e-19
676.4077    9.132517e-19
676.5087    9.132183e-19
676.6096    9.138125e-19
676.7105    9.592977e-19
676.8115    9.693588e-19
676.9124    9.842178e-19
677.0134    1.032214e-18
677.1143    9.972920e-19
677.2153    9.766678e-19
677.3162    9.394566e-19
677.4172    9.452786e-19
677.5181    9.398659e-19
677.6191    9.449007e-19
677.7200    9.166423e-19
677.8209    8.995539e-19
677.9219    9.258608e-19
678.0228    9.131144e-19
678.1238    9.068307e-19
678.2247    9.058192e-19
678.3257    9.089332e-19
678.4266    8.832145e-19
678.5276    8.685914e-19
678.6285    8.983340e-19
678.7295    9.068680e-19
678.8304    8.977582e-19
678.9313    8.798997e-19
679.0323    8.886566e-19
679.1332    9.015802e-19
679.2342    8.902919e-19
679.3351    8.941776e-19
679.4361    8.955251e-19
679.5370    8.892779e-19
679.6380    8.844510e-19
679.7389    8.840537e-19
679.8399    8.761325e-19
679.9408    8.521897e-19
680.0417    8.786108e-19
680.1427    8.792109e-19
680.2436    9.630332e-19
680.3446    1.177618e-18
680.4455    1.354867e-18
680.5465    1.465491e-18
680.6474    1.554965e-18
680.7484    1.653183e-18
680.8493    1.716634e-18
680.9503    1.743297e-18
681.0512    1.737537e-18
681.1521    1.669814e-18
681.2531    1.550276e-18
681.3540    1.399785e-18
681.4550    1.091530e-18
681.5559    9.099372e-19
681.6569    8.683510e-19
681.7578    9.455038e-19
681.8588    1.134823e-18
681.9597    1.271349e-18
682.0607    1.338396e-18
682.1616    1.413061e-18
682.2625    1.438676e-18
682.3635    1.493381e-18
682.4644    1.484670e-18
682.5654    1.434640e-18
682.6663    1.359228e-18
682.7673    1.300401e-18
682.8682    1.121340e-18
682.9692    8.766892e-19
683.0701    8.875199e-19
683.1711    8.510138e-19
683.2720    8.142262e-19
683.3730    8.330384e-19
683.4739    8.745695e-19
683.5748    8.842532e-19
683.6758    8.430320e-19
683.7767    8.469518e-19
683.8777    8.635517e-19
683.9786    8.583387e-19
684.0796    8.186397e-19
684.1805    8.451258e-19
684.2815    8.748297e-19
684.3824    8.738977e-19
684.4834    8.673231e-19
684.5843    8.523188e-19
684.6852    8.697722e-19
684.7862    8.818662e-19
684.8871    8.456353e-19
684.9881    8.632449e-19
685.0890    8.791191e-19
685.1900    8.711237e-19
685.2909    8.455910e-19
685.3919    8.713327e-19
685.4928    8.768339e-19
685.5938    8.472767e-19
685.6947    8.540296e-19
685.7956    8.695312e-19
685.8966    8.467157e-19
685.9975    8.367255e-19
686.0985    8.466321e-19
686.1994    8.291618e-19
686.3004    8.305224e-19
686.4013    8.292230e-19
686.5023    7.515672e-19
686.6032    6.974370e-19
686.7042    6.518325e-19
686.8051    6.548287e-19
686.9060    6.469374e-19
687.0070    6.327877e-19
687.1079    6.146631e-19
687.2089    6.256015e-19
687.3098    6.500080e-19
687.4108    6.547581e-19
687.5117    6.722370e-19
687.6127    7.068691e-19
687.7136    7.030732e-19
687.8146    7.169218e-19
687.9155    7.904671e-19
688.0164    7.847638e-19
688.1174    7.788654e-19
688.2183    7.970536e-19
688.3193    7.775237e-19
688.4202    7.720158e-19
688.5212    7.700839e-19
688.6221    7.657616e-19
688.7231    7.357283e-19
688.8240    7.294450e-19
688.9250    7.406522e-19
689.0259    7.296099e-19
689.1268    7.307338e-19
689.2278    7.276092e-19
689.3287    7.337169e-19
689.4297    7.487266e-19
689.5306    7.750637e-19
689.6316    7.402102e-19
689.7325    7.788564e-19
689.8335    7.679191e-19
689.9344    7.653937e-19
690.0354    7.538876e-19
690.1363    7.808694e-19
690.2372    7.739048e-19
690.3382    7.528072e-19
690.4391    7.574552e-19
690.5401    7.598956e-19
690.6410    7.930232e-19
690.7420    7.841058e-19
690.8429    7.786138e-19
690.9439    7.883104e-19
691.0448    7.974819e-19
691.1458    7.982017e-19
691.2467    7.840474e-19
691.3476    7.898891e-19
691.4486    8.169651e-19
691.5495    8.219408e-19
691.6505    8.183582e-19
691.7514    8.207382e-19
691.8524    8.121268e-19
691.9533    7.759669e-19
692.0543    7.815155e-19
692.1552    8.217977e-19
692.2562    8.471014e-19
692.3571    8.328062e-19
692.4580    7.891440e-19
692.5590    8.146988e-19
692.6599    8.404814e-19
692.7609    8.240054e-19
692.8618    8.144862e-19
692.9628    8.385181e-19
693.0637    8.243935e-19
693.1647    8.348566e-19
693.2656    8.337632e-19
693.3666    8.195450e-19
693.4675    7.940966e-19
693.5684    8.167410e-19
693.6694    7.804919e-19
693.7703    7.933691e-19
693.8713    7.917194e-19
693.9722    8.010622e-19
694.0732    8.089914e-19
694.1741    8.184534e-19
694.2751    8.242874e-19
694.3760    8.142034e-19
694.4770    8.040370e-19
694.5779    7.863564e-19
694.6788    8.356401e-19
694.7798    8.226070e-19
694.8807    7.943688e-19
694.9817    8.519167e-19
695.0826    8.314506e-19
695.1836    8.355909e-19
695.2845    8.025698e-19
695.3855    8.034701e-19
695.4864    8.224628e-19
695.5874    8.306720e-19
695.6883    8.106929e-19
695.7892    8.115912e-19
695.8902    8.165055e-19
695.9911    7.927903e-19
696.0921    8.220093e-19
696.1930    8.029366e-19
696.2940    8.083963e-19
696.3949    8.226899e-19
696.4959    8.307920e-19
696.5968    8.148815e-19
696.6978    8.263422e-19
696.7987    8.396142e-19
696.8996    8.272647e-19
697.0006    8.038739e-19
697.1015    8.045361e-19
697.2025    8.026258e-19
697.3034    7.817463e-19
697.4044    8.298508e-19
697.5053    8.470187e-19
697.6063    8.454290e-19
697.7072    8.238317e-19
697.8082    7.920898e-19
697.9091    7.989696e-19
698.0100    8.202803e-19
698.1110    8.322523e-19
698.2119    8.240504e-19
698.3129    8.256178e-19
698.4138    8.379747e-19
698.5148    8.623121e-19
698.6157    8.634747e-19
698.7167    8.551374e-19
698.8176    8.338602e-19
698.9186    8.328824e-19
699.0195    8.250705e-19
699.1204    8.303503e-19
699.2214    8.123821e-19
699.3223    8.042925e-19
699.4233    7.981229e-19
699.5242    8.182108e-19
699.6252    8.332633e-19
699.7261    7.859210e-19
699.8271    8.136728e-19
699.9280    8.262402e-19
700.0290    8.370929e-19
700.1299    8.288414e-19
700.2308    7.849060e-19
700.3318    7.893176e-19
700.4327    8.339567e-19
700.5337    8.165329e-19
700.6346    8.264917e-19
700.7356    7.982265e-19
700.8365    7.990958e-19
700.9375    7.966165e-19
701.0384    8.045056e-19
701.1394    8.041273e-19
701.2403    7.693534e-19
701.3412    7.773334e-19
701.4422    7.797645e-19
701.5431    8.026920e-19
701.6441    7.910050e-19
701.7450    8.245344e-19
701.8460    8.264004e-19
701.9469    8.170912e-19
702.0479    8.169901e-19
702.1488    8.356910e-19
702.2498    8.110828e-19
702.3507    7.944894e-19
702.4516    8.135605e-19
702.5526    8.307408e-19
702.6535    8.290472e-19
702.7545    8.183684e-19
702.8554    8.341292e-19
702.9564    8.159592e-19
703.0573    8.011408e-19
703.1583    8.102148e-19
703.2592    7.986992e-19
703.3602    8.369132e-19
703.4611    8.273154e-19
703.5620    8.158492e-19
703.6630    7.848556e-19
703.7639    7.798764e-19
703.8649    8.117479e-19
703.9658    8.019480e-19
704.0668    8.197254e-19
704.1677    8.306634e-19
704.2687    8.072068e-19
704.3696    8.020826e-19
704.4706    7.968447e-19
704.5715    7.846676e-19
704.6724    7.952606e-19
704.7734    8.014415e-19
704.8743    8.125122e-19
704.9753    8.089091e-19
705.0762    8.072541e-19
705.1772    7.873066e-19
705.2781    7.765424e-19
705.3791    7.790392e-19
705.4800    7.922352e-19
705.5810    7.884073e-19
705.6819    7.964913e-19
705.7828    7.959791e-19
705.8838    7.689793e-19
705.9847    8.145480e-19
706.0857    8.469661e-19
706.1866    8.199245e-19
706.2876    8.184934e-19
706.3885    7.758494e-19
706.4895    7.928026e-19
706.5904    8.123436e-19
706.6914    7.731539e-19
706.7923    7.958114e-19
706.8932    8.163832e-19
706.9942    8.132912e-19
707.0951    8.071956e-19
707.1961    7.976587e-19
707.2970    7.955998e-19
707.3980    7.961134e-19
707.4989    8.055766e-19
707.5999    7.903114e-19
707.7008    7.773212e-19
707.8018    7.829718e-19
707.9027    7.913336e-19
708.0036    7.922949e-19
708.1046    7.878878e-19
708.2055    7.624858e-19
708.3065    7.663992e-19
708.4074    7.742028e-19
708.5084    8.012644e-19
708.6093    7.939547e-19
708.7103    8.191564e-19
708.8112    8.277932e-19
708.9122    8.002868e-19
709.0131    7.890211e-19
709.1140    7.972775e-19
709.2150    8.180471e-19
709.3159    8.269036e-19
709.4169    7.928945e-19
709.5178    7.878342e-19
709.6188    7.856500e-19
709.7197    7.994712e-19
709.8207    7.925006e-19
709.9216    8.006515e-19
710.0226    8.168595e-19
710.1235    7.857022e-19
710.2244    7.562146e-19
710.3254    8.092032e-19
710.4263    8.555111e-19
710.5273    8.343862e-19
710.6282    8.176907e-19
710.7292    7.857015e-19
710.8301    7.862800e-19
710.9311    7.746624e-19
711.0320    7.646977e-19
711.1330    7.898697e-19
711.2339    7.802394e-19
711.3348    7.960546e-19
711.4358    8.113792e-19
711.5367    8.057200e-19
711.6377    8.045772e-19
711.7386    7.856799e-19
711.8396    7.934621e-19
711.9405    7.596132e-19
712.0415    8.056705e-19
712.1424    7.826732e-19
712.2434    7.796105e-19
712.3443    8.232392e-19
712.4452    7.784531e-19
712.5462    8.001571e-19
712.6471    7.742338e-19
712.7481    7.851768e-19
712.8490    7.700313e-19
712.9500    8.338058e-19
713.0509    7.879019e-19
713.1519    7.774726e-19
713.2528    7.676967e-19
713.3538    7.985775e-19
713.4547    7.674722e-19
713.5556    8.073926e-19
713.6566    8.038208e-19
713.7575    8.276525e-19
713.8585    7.960446e-19
713.9594    7.606602e-19
714.0604    7.552324e-19
714.1613    7.987454e-19
714.2623    8.021968e-19
714.3632    8.342078e-19
714.4642    8.320102e-19
714.5651    7.940192e-19
714.6660    7.977900e-19
714.7670    7.698080e-19
714.8679    7.855621e-19
714.9689    8.297850e-19
715.0698    8.123273e-19
715.1708    7.919086e-19
715.2717    7.777743e-19
715.3727    8.004978e-19
715.4736    8.204644e-19
715.5746    7.956518e-19
715.6755    7.900840e-19
715.7764    8.203673e-19
715.8774    8.004275e-19
715.9783    8.084051e-19
716.0793    8.278582e-19
716.1802    8.502783e-19
716.2812    8.720733e-19
716.3821    8.244956e-19
716.4831    7.960484e-19
716.5840    7.885144e-19
716.6850    7.779390e-19
716.7859    7.472064e-19
716.8868    7.432922e-19
716.9878    7.064764e-19
717.0887    7.303454e-19
717.1897    7.236321e-19
717.2906    7.273884e-19
717.3916    7.106237e-19
717.4925    7.031684e-19
717.5935    7.132971e-19
717.6944    7.316757e-19
717.7954    7.608276e-19
717.8963    7.568806e-19
717.9972    7.229711e-19
718.0982    6.853656e-19
718.1991    7.187288e-19
718.3001    7.021916e-19
718.4010    7.036395e-19
718.5020    7.128310e-19
718.6029    6.832417e-19
718.7039    6.668317e-19
718.8048    6.586956e-19
718.9058    7.005863e-19
719.0067    6.868121e-19
719.1076    6.807949e-19
719.2086    7.210731e-19
719.3095    7.317756e-19
719.4105    7.047464e-19
719.5114    6.843812e-19
719.6124    6.953649e-19
719.7133    7.146491e-19
719.8143    7.423541e-19
719.9152    7.378038e-19
720.0162    7.100202e-19
720.1171    6.949543e-19
720.2181    7.176755e-19
720.3190    7.074983e-19
720.4199    6.995534e-19
720.5209    7.082079e-19
720.6218    6.947834e-19
720.7228    7.143085e-19
720.8237    7.252627e-19
720.9247    7.386358e-19
721.0256    7.552787e-19
721.1266    7.518670e-19
721.2275    7.581327e-19
721.3285    7.571494e-19
721.4294    7.641661e-19
721.5303    7.615544e-19
721.6313    7.727879e-19
721.7322    7.589209e-19
721.8332    7.436132e-19
721.9341    7.468798e-19
722.0351    7.495447e-19
722.1360    7.568335e-19
722.2370    7.456848e-19
722.3379    7.444994e-19
722.4389    7.502849e-19
722.5398    7.327587e-19
722.6407    7.519624e-19
722.7417    7.599173e-19
722.8426    7.283520e-19
722.9436    7.630917e-19
723.0445    8.102657e-19
723.1455    8.414995e-19
723.2464    8.710412e-19
723.3474    9.529608e-19
723.4483    9.168150e-19
723.5493    8.662702e-19
723.6502    8.228373e-19
723.7511    8.185822e-19
723.8521    7.674672e-19
723.9530    7.655748e-19
724.0540    7.046745e-19
724.1549    6.838753e-19
724.2559    7.237328e-19
724.3568    6.985129e-19
724.4578    6.563460e-19
724.5587    7.372106e-19
724.6597    7.365115e-19
724.7606    6.977740e-19
724.8615    7.142206e-19
724.9625    7.054334e-19
725.0634    7.300292e-19
725.1644    7.085950e-19
725.2653    6.945247e-19
725.3663    6.907290e-19
725.4672    7.101491e-19
725.5682    7.182598e-19
725.6691    7.282567e-19
725.7701    7.465875e-19
725.8710    7.259364e-19
725.9719    6.996588e-19
726.0729    7.079898e-19
726.1738    7.313301e-19
726.2748    7.343870e-19
726.3757    7.213709e-19
726.4767    7.083954e-19
726.5776    7.021266e-19
726.6786    7.045712e-19
726.7795    7.307964e-19
726.8805    7.241481e-19
726.9814    7.517698e-19
727.0823    7.707195e-19
727.1833    7.434259e-19
727.2842    7.600777e-19
727.3852    7.389878e-19
727.4861    6.998824e-19
727.5871    6.629978e-19
727.6880    7.113400e-19
727.7890    7.290392e-19
727.8899    6.867106e-19
727.9909    6.715954e-19
728.0918    7.562153e-19
728.1927    7.128714e-19
728.2937    7.356151e-19
728.3946    7.092105e-19
728.4956    7.056755e-19
728.5965    7.092346e-19
728.6975    7.099226e-19
728.7984    7.031387e-19
728.8994    7.203600e-19
729.0003    7.023679e-19
729.1013    7.024340e-19
729.2022    7.235638e-19
729.3031    7.134130e-19
729.4041    6.882482e-19
729.5050    6.911548e-19
729.6060    6.925466e-19
729.7069    7.271983e-19
729.8079    7.011272e-19
729.9088    6.996423e-19
730.0098    7.360725e-19
730.1107    7.469911e-19
730.2117    7.198022e-19
730.3126    7.122488e-19
730.4135    7.092522e-19
730.5145    7.073334e-19
730.6154    7.211627e-19
730.7164    7.049975e-19
730.8173    6.846255e-19
730.9183    6.904289e-19
731.0192    7.352524e-19
731.1202    7.117417e-19
731.2211    6.963900e-19
731.3221    6.903816e-19
731.4230    6.823156e-19
731.5239    6.727460e-19
731.6249    6.999706e-19
731.7258    7.326710e-19
731.8268    7.261664e-19
731.9277    7.113575e-19
732.0287    7.084066e-19
732.1296    7.242126e-19
732.2306    7.452010e-19
732.3315    7.199618e-19
732.4325    7.470851e-19
732.5334    7.686894e-19
732.6343    7.588619e-19
732.7353    7.184806e-19
732.8362    7.098380e-19
732.9372    6.911794e-19
733.0381    7.082382e-19
733.1391    7.300482e-19
733.2400    7.605762e-19
733.3410    7.658791e-19
733.4419    7.062960e-19
733.5429    7.797317e-19
733.6438    7.158865e-19
733.7447    7.313527e-19
733.8457    7.543227e-19
733.9466    7.472876e-19
734.0476    7.302186e-19
734.1485    7.462197e-19
734.2495    6.904553e-19
734.3504    7.267645e-19
734.4514    7.691998e-19
734.5523    7.267262e-19
734.6533    7.599784e-19
734.7542    7.531201e-19
734.8551    7.731412e-19
734.9561    7.301162e-19
735.0570    7.406716e-19
735.1580    7.648695e-19
735.2589    7.406605e-19
735.3599    7.426540e-19
735.4608    7.218924e-19
735.5618    7.456901e-19
735.6627    7.475518e-19
735.7637    7.401055e-19
735.8646    7.364871e-19
735.9655    7.187905e-19
736.0665    7.273996e-19
736.1674    7.194930e-19
736.2684    7.248052e-19
736.3693    7.091913e-19
736.4703    7.138840e-19
736.5712    7.316744e-19
736.6722    7.428065e-19
736.7731    7.212179e-19
736.8741    6.954888e-19
736.9750    7.248086e-19
737.0759    7.483111e-19
737.1769    7.520682e-19
737.2778    7.619663e-19
737.3788    7.502403e-19
737.4797    7.021560e-19
737.5807    7.172322e-19
737.6816    7.228845e-19
737.7826    7.408683e-19
737.8835    7.479324e-19
737.9845    7.405936e-19
738.0854    7.520237e-19
738.1863    7.474100e-19
738.2873    7.388097e-19
738.3882    7.333980e-19
738.4892    7.085324e-19
738.5901    7.092490e-19
738.6911    7.303217e-19
738.7920    7.079720e-19
738.8930    7.111526e-19
738.9939    6.744953e-19
739.0949    6.904567e-19
739.1958    7.394901e-19
739.2967    7.074922e-19
739.3977    6.977013e-19
739.4986    6.746313e-19
739.5996    7.238858e-19
739.7005    6.634251e-19
739.8015    6.867987e-19
739.9024    6.849805e-19
740.0034    6.942220e-19
740.1043    7.504930e-19
740.2053    7.532468e-19
740.3062    7.363108e-19
740.4071    7.325696e-19
740.5081    7.180855e-19
740.6090    7.182632e-19
740.7100    7.190869e-19
740.8109    7.105481e-19
740.9119    7.116680e-19
741.0128    7.020001e-19
741.1138    7.297090e-19
741.2147    7.496598e-19
741.3157    7.359337e-19
741.4166    7.167249e-19
741.5175    7.337006e-19
741.6185    7.666058e-19
741.7194    7.775730e-19
741.8204    7.947606e-19
741.9213    8.097421e-19
742.0223    8.187140e-19
742.1232    8.230122e-19
742.2242    8.211642e-19
742.3251    8.039490e-19
742.4261    7.717556e-19
742.5270    7.643147e-19
742.6279    7.848610e-19
742.7289    7.636646e-19
742.8298    7.908716e-19
742.9308    7.802953e-19
743.0317    7.948477e-19
743.1327    8.104340e-19
743.2336    8.032675e-19
743.3346    8.116872e-19
743.4355    7.326184e-19
743.5365    7.497988e-19
743.6374    7.300993e-19
743.7383    7.254089e-19
743.8393    6.519200e-19
743.9402    6.728515e-19
744.0412    6.629679e-19
744.1421    6.404622e-19
744.2431    6.745301e-19
744.3440    6.521938e-19
744.4450    7.180142e-19
744.5459    6.819313e-19
744.6469    7.221822e-19
744.7478    6.914960e-19
744.8487    6.697685e-19
744.9497    6.624293e-19
745.0506    6.766459e-19
745.1516    6.636122e-19
745.2525    6.714318e-19
745.3535    7.007560e-19
745.4544    6.809606e-19
745.5554    6.618822e-19
745.6563    6.581643e-19
745.7573    6.823688e-19
745.8582    6.655198e-19
745.9591    6.552383e-19
746.0601    6.943480e-19
746.1610    7.170335e-19
746.2620    6.876980e-19
746.3629    6.856190e-19
746.4639    6.975020e-19
746.5648    6.791826e-19
746.6658    6.552801e-19
746.7667    6.640559e-19
746.8677    7.209297e-19
746.9686    7.085673e-19
747.0695    6.879216e-19
747.1705    6.653348e-19
747.2714    6.817090e-19
747.3724    6.601764e-19
747.4733    6.685712e-19
747.5743    6.870024e-19
747.6752    6.758444e-19
747.7762    6.420624e-19
747.8771    6.491624e-19
747.9781    7.442290e-19
748.0790    7.196085e-19
748.1799    6.626710e-19
748.2809    6.944003e-19
748.3818    7.516624e-19
748.4828    6.930778e-19
748.5837    6.608141e-19
748.6847    6.406995e-19
748.7856    4.211228e-19
748.8866    4.814825e-35
